Here	are	the	results	for	Channel	1	(nasal):	time	-	pitch(Hz)	-	Amplitude(dB)	-	RMSqIntensity(Pa)
0.27	--undefined--	40.855	0.002206933		0.27	--undefined--	44.249	0.003262016		0.596461207				
0.28	--undefined--	53.762	0.009753117		0.28	--undefined--	57.89	0.015685919		0.616608228				
0.29	--undefined--	63.594	0.03024859		0.29	255	67.416	0.046970645		0.608276493				
0.3	--undefined--	68.879	0.055587519		0.3	259.259	72.44	0.083754594		0.60107165				
0.31	--undefined--	72.064	0.080212612		0.31	248.074	75.102	0.113791047		0.586540726				
0.32	210.149	74.668	0.108246208		0.32	214.924	77.119	0.143540217		0.570087197				
0.33	209.266	76.015	0.126415434		0.33	213.72	77.962	0.158168564		0.555788678				
0.34	208.331	77.137	0.143838463		0.34	213.615	77.995	0.158770519		0.524672196				
0.35	205.853	78.523	0.168724626		0.35	206.528	77.544	0.150739842		0.471851669				
0.36	203.367	80.418	0.209855248		0.36	203.407	76.321	0.130940973		0.384220731				
0.37	203.342	83.171	0.288122111		0.37	203.032	75.118	0.114000798		0.283497397				
0.38	199.462	85.089	0.359316236		0.38	198.97	74.71	0.108773449		0.232377367				
0.39	196.749	85.653	0.383415467		0.39	196.364	74.61	0.107531174		0.21902823				
0.4	193.704	85.012	0.356143844		0.4	193.864	74.186	0.102409634		0.223331932				
0.41	189.997	82.906	0.279456925		0.41	190.166	72.621	0.085525859		0.234328475				
0.42	185.991	78.73	0.17280134		0.42	186.194	69.081	0.056898645		0.247708527				
0.43	--undefined--	71.62	0.076210835		0.43	--undefined--	62.799	0.0276052		0.265904974				
0.44	--undefined--	60.716	0.021718439		0.44	--undefined--	53.549	0.009516721		0.304679767				
0.45	--undefined--	47.203	0.004583315		0.45	--undefined--	44.404	0.003320825		0.420137446				
0.46	--undefined--	44.409	0.003322461		0.46	--undefined--	41.02	0.002249226		0.403688497				
0.47	--undefined--	51.721	0.007710363		0.47	--undefined--	41.76	0.002449327		0.241082835				
0.48	--undefined--	57.029	0.014206537		0.48	--undefined--	45.111	0.003602246		0.202273584				
0.49	--undefined--	60.995	0.022427506		0.49	--undefined--	49.02	0.005649858		0.201224658				
0.5	--undefined--	70.859	0.069823656		0.5	--undefined--	59.274	0.018396234		0.20852706				
0.51	243.136	79.244	0.183322443		0.51	243.519	67.838	0.049312198		0.211972722				
0.52	233.072	83.288	0.292037911		0.52	232.735	72.027	0.079871162		0.214759917				
0.53	224.546	83.266	0.29128223		0.53	220.687	72.283	0.082259432		0.220214879				
0.54	213.471	79.186	0.182118272		0.54	206.168	69.024	0.056522911		0.236853129				
0.55	--undefined--	70.699	0.068545726		0.55	197.691	63.318	0.029305476		0.2994902				
0.56	--undefined--	58.085	0.016042147		0.56	202.962	57.396	0.014819674		0.480194401				
0.57	--undefined--	47.881	0.004955407		0.57	--undefined--	51.117	0.007192176		0.592066439				
0.58	--undefined--	43.693	0.003059726		0.58	--undefined--	44.305	0.003282926		0.517595141				
0.59	--undefined--	40.722	0.002173244		0.59	--undefined--	39.698	0.00193161		0.470567183				
0.6	--undefined--	38.952	0.001772717		0.6	--undefined--	38.037	0.001595485		0.473690363				
0.61	--undefined--	41.723	0.00243882		0.61	--undefined--	37.969	0.001582957		0.393596406				
0.62	--undefined--	50.903	0.007017376		0.62	--undefined--	40.638	0.002152314		0.234720475				
0.63	--undefined--	56.604	0.013527605		0.63	--undefined--	45.324	0.003691558		0.214386605				
0.64	--undefined--	58.707	0.017232897		0.64	--undefined--	47.448	0.004714419		0.214806167				
0.65	--undefined--	66.647	0.042990818		0.65	--undefined--	54.924	0.01114866		0.205924772				
0.66	261.307	75.179	0.114808791		0.66	261.65	63.615	0.030324937		0.208944793				
0.67	249.368	79.871	0.197047366		0.67	250.698	68.484	0.053119436		0.212336071				
0.68	240.932	81.248	0.230900236		0.68	241.46	70.014	0.063347415		0.215286051				
0.69	235.528	79.894	0.197570662		0.69	234.888	68.909	0.055781263		0.220173037				
0.7	231.243	76.313	0.13082432		0.7	229.444	65.928	0.039575321		0.232250028				
0.71	228.802	70.981	0.070808643		0.71	225.6	61.724	0.024391495		0.256212815				
0.72	218.963	64.529	0.033687865		0.72	219.259	56.437	0.013270944		0.282608194				
0.73	--undefined--	57.972	0.015834581		0.73	--undefined--	49.623	0.006055855		0.276643891				
0.74	--undefined--	54.171	0.010223411		0.74	--undefined--	43.55	0.003009581		0.227430157				
0.75	--undefined--	52.223	0.00816886		0.75	--undefined--	42.407	0.002638569		0.244143972				
0.76	--undefined--	50.348	0.006583331		0.76	--undefined--	41.984	0.002513146		0.276276869				
0.77	--undefined--	48.541	0.005346674		0.77	--undefined--	40.104	0.002024071		0.274608786				
0.78	--undefined--	47.425	0.004701973		0.78	--undefined--	38.019	0.001592079		0.252949824				
0.79	--undefined--	46.13	0.004050602		0.79	--undefined--	36.772	0.001379167		0.254001076				
0.8	--undefined--	42.788	0.002756942		0.8	--undefined--	35.186	0.001148998		0.294166839				
0.81	--undefined--	38.252	0.001635393		0.81	--undefined--	34.844	0.001104718		0.403165364				
0.82	--undefined--	36.745	0.001374911		0.82	--undefined--	35.175	0.001147607		0.454944988				
0.83	--undefined--	37.197	0.001448289		0.83	--undefined--	35.732	0.001223637		0.457960748				
0.84	--undefined--	37.492	0.001498453		0.84	--undefined--	36.169	0.001286746		0.461994373				
0.85	--undefined--	37.674	0.00153011		0.85	--undefined--	36.237	0.001296838		0.458741338				
0.86	--undefined--	38.28	0.001640705		0.86	--undefined--	36.341	0.001312478		0.444428304				
0.87	--undefined--	41.477	0.002370747		0.87	--undefined--	36.393	0.0013203		0.357703454				
0.88	--undefined--	49.675	0.006092099		0.88	--undefined--	39.221	0.00182836		0.23084012				
0.89	--undefined--	58.291	0.016427656		0.89	--undefined--	46.415	0.004185815		0.20306211				
0.9	--undefined--	67.772	0.048934007		0.9	--undefined--	55.893	0.01246479		0.203013592				
0.91	--undefined--	74.318	0.103976341		0.91	--undefined--	62.483	0.026619291		0.203829874				
0.92	--undefined--	77.299	0.146543156		0.92	--undefined--	65.509	0.03771162		0.204671059				
0.93	147.718	77.224	0.14528529		0.93	144.883	65.546	0.037873845		0.206781087				
0.94	143.53	74.868	0.110767947		0.94	143.288	63.574	0.030179644		0.214119612				
0.95	137.575	70.915	0.070269666		0.95	137.56	60.501	0.021188293		0.231672489				
0.96	131.421	65.125	0.03608104		0.96	--undefined--	55.94	0.012531597		0.257784761				
0.97	--undefined--	56.565	0.013466876		0.97	--undefined--	48.926	0.005589178		0.293301959				
0.98	--undefined--	45.016	0.003563077		0.98	--undefined--	40.901	0.002218508		0.383719715				
0.99	--undefined--	38.338	0.001651625		0.99	--undefined--	38.463	0.001675683		0.503615143				
1	--undefined--	38.444	0.001671976		1	--undefined--	38.127	0.001612055		0.490876857				
1.01	--undefined--	38.63	0.001708125		1.01	--undefined--	38.166	0.001619289		0.486651008				
1.02	--undefined--	38.619	0.001706044		1.02	--undefined--	37.913	0.001572758		0.479674553				
1.03	--undefined--	44.388	0.003314719		1.03	--undefined--	38.065	0.001600603		0.325635401				
1.04	--undefined--	52.978	0.008910596		1.04	--undefined--	42.617	0.002703087		0.232750181				
1.05	--undefined--	57.865	0.01564206		1.05	--undefined--	47.067	0.004511877		0.223870753				
1.06	--undefined--	60.447	0.02105607		1.06	--undefined--	49.567	0.006017248		0.222257494				
1.07	--undefined--	65.862	0.039275522		1.07	--undefined--	54.195	0.010251192		0.206983083				
1.08	--undefined--	70.912	0.070247882		1.08	--undefined--	58.998	0.017821333		0.202355992				
1.09	--undefined--	73.535	0.095007661		1.09	--undefined--	61.74	0.024435557		0.204578856				
1.1	--undefined--	74.25	0.103166741		1.1	--undefined--	62.72	0.027354944		0.209581606				
1.11	--undefined--	73.128	0.090667568		1.11	--undefined--	61.954	0.02504657		0.216452117				
1.12	--undefined--	69.452	0.059381633		1.12	--undefined--	59.023	0.017871554		0.231337434				
1.13	--undefined--	62.336	0.026170407		1.13	--undefined--	53.523	0.009487885		0.266077947				
1.14	--undefined--	51.465	0.007486907		1.14	--undefined--	46.093	0.004033249		0.350103697				
1.15	--undefined--	43.028	0.002834265		1.15	--undefined--	40.947	0.002230489		0.440394279				
1.16	--undefined--	44.759	0.003459156		1.16	--undefined--	39.749	0.001942992		0.359670182				
1.17	--undefined--	53.646	0.009623323		1.17	--undefined--	42.944	0.002807004		0.225819006				
1.18	--undefined--	60.694	0.021663372		1.18	--undefined--	48.689	0.005438458		0.200667556				
1.19	--undefined--	66.932	0.044424815		1.19	--undefined--	53.941	0.009955762		0.183075694				
1.2	--undefined--	72.157	0.081071658		1.2	--undefined--	58.679	0.017178251		0.174842408				
1.21	--undefined--	75.212	0.115243074		1.21	--undefined--	61.643	0.024163463		0.173330917				
1.22	--undefined--	76.434	0.132650371		1.22	--undefined--	62.921	0.027994111		0.174261268				
1.23	--undefined--	76.47	0.133200778		1.23	--undefined--	63.133	0.028685163		0.177193661				
1.24	--undefined--	75.667	0.121440197		1.24	--undefined--	62.574	0.026899309		0.181336111				
1.25	--undefined--	74.803	0.109942825		1.25	--undefined--	61.887	0.024852956		0.184374878				
1.26	--undefined--	74.396	0.104911824		1.26	--undefined--	61.5	0.023771387		0.184727957				
1.27	--undefined--	74.249	0.103157238		1.27	--undefined--	61.36	0.023388873		0.184824902				
1.28	126.133	74.085	0.101224448		1.28	126.437	61.42	0.023551089		0.188747645				
1.29	136.631	74.128	0.101726197		1.29	136.36	61.774	0.02453187		0.194299429				
1.3	123.078	73.926	0.099382311		1.3	122.882	61.83	0.024691017		0.199003421				
1.31	128.379	72.873	0.088039789		1.31	128.888	61.087	0.02266661		0.20474526				
1.32	127.121	71.049	0.071366351		1.32	127.343	59.621	0.019146913		0.211537093				
1.33	126.332	68.321	0.052127472		1.33	126.151	57.375	0.014783004		0.220937065				
1.34	122.063	64.841	0.034920839		1.34	121.534	54.704	0.010870609		0.237393874				
1.35	--undefined--	60.471	0.021114294		1.35	--undefined--	51.206	0.007266225		0.256028614				
1.36	--undefined--	54.599	0.010739626		1.36	--undefined--	45.981	0.003981761		0.27047455				
1.37	--undefined--	48.935	0.005594741		1.37	--undefined--	40.909	0.002220557		0.28412953				
1.38	--undefined--	46.94	0.004446822		1.38	--undefined--	39.48	0.001883863		0.297576453				
1.39	--undefined--	46.148	0.004058902		1.39	--undefined--	38.444	0.001671984		0.291749594				
1.4	--undefined--	44.067	0.003194406		1.4	--undefined--	37.863	0.001563765		0.328648297				
1.41	--undefined--	41.884	0.00248439		1.41	--undefined--	38.762	0.001734387		0.411111319				
1.42	--undefined--	42.686	0.002724798		1.42	--undefined--	39.4	0.00186641		0.406518254				
1.43	--undefined--	44.034	0.0031823		1.43	--undefined--	39.437	0.001874515		0.370690811				
1.44	--undefined--	44.761	0.003459848		1.44	--undefined--	39.472	0.001881996		0.352312056				
1.45	--undefined--	46.54	0.00424661		1.45	--undefined--	40.377	0.002088811		0.329703548				
1.46	--undefined--	49.768	0.006157596		1.46	--undefined--	42.072	0.002538779		0.291935305				
1.47	--undefined--	53.932	0.009945549		1.47	--undefined--	43.357	0.002943776		0.228388693				
1.48	--undefined--	58.981	0.017785436		1.48	--undefined--	43.477	0.002984484		0.143692622				
1.49	--undefined--	62.216	0.025812011		1.49	--undefined--	42.852	0.002777501		0.097151032				
1.5	--undefined--	61.799	0.024602827		1.5	--undefined--	41.685	0.002428214		0.089830573				
1.51	--undefined--	57.851	0.015616268		1.51	--undefined--	40.83	0.002200474		0.123505969				
1.52	--undefined--	52.997	0.008930842		1.52	--undefined--	41.651	0.00241881		0.213117581				
1.53	--undefined--	49.643	0.006070173		1.53	--undefined--	41.814	0.002464386		0.288753775				
1.54	--undefined--	47.35	0.004661582		1.54	--undefined--	41.995	0.002516274		0.350560671				
1.55	--undefined--	46.663	0.004307026		1.55	--undefined--	42.085	0.002542666		0.371208834				
1.56	--undefined--	45.246	0.003658709		1.56	--undefined--	40.951	0.002231313		0.378829273				
1.57	--undefined--	42.534	0.002677524		1.57	--undefined--	38.908	0.001763695		0.397119585				
1.58	--undefined--	40.163	0.002037978		1.58	--undefined--	37.59	0.001515358		0.426460552				
1.59	--undefined--	39.698	0.001931613		1.59	--undefined--	37.573	0.001512531		0.439160267				
1.6	--undefined--	39.572	0.001903861		1.6	--undefined--	38.213	0.001628109		0.460963354				
1.61	--undefined--	38.795	0.00174101		1.61	--undefined--	38.78	0.001737847		0.499545337				
1.62	--undefined--	38.145	0.0016154		1.62	--undefined--	38.458	0.001674606		0.50899787				
1.63	--undefined--	38.529	0.001688423		1.63	--undefined--	37.67	0.001529396		0.475289724				
1.64	--undefined--	39.014	0.001785474		1.64	--undefined--	37.374	0.001478205		0.452925918				
1.65	--undefined--	38.823	0.001746573		1.65	--undefined--	38	0.001588644		0.476324122				
1.66	--undefined--	38.327	0.001649661		1.66	--undefined--	38.291	0.001642774		0.498954001				
1.67	--undefined--	38.063	0.001600143		1.67	--undefined--	37.923	0.001574652		0.495985387				
1.68	--undefined--	37.801	0.00155272		1.68	--undefined--	37.331	0.001470917		0.486472743				
1.69	--undefined--	38.538	0.001690139		1.69	--undefined--	37.008	0.001417139		0.45607093				
1.7	--undefined--	49.001	0.005637177		1.7	--undefined--	40.203	0.002047186		0.26640934				
1.71	--undefined--	59.105	0.018042563		1.71	--undefined--	48.155	0.005114247		0.220852837				
1.72	--undefined--	69.086	0.056925936		1.72	--undefined--	57.582	0.015139611		0.210081122				
1.73	--undefined--	77.941	0.157789108		1.73	--undefined--	66.31	0.041354253		0.207660715				
1.74	164.607	83.051	0.28418383		1.74	165.275	71.395	0.074264377		0.207183007				
1.75	167.949	84.772	0.346445903		1.75	168.356	73.101	0.090381173		0.20690378				
1.76	167.085	83.526	0.300149498		1.76	167.976	71.787	0.077694535		0.205625941				
1.77	157.618	79.46	0.187951315		1.77	156.349	67.505	0.04745245		0.201578978				
1.78	147.042	72.501	0.084351491		1.78	--undefined--	60.268	0.020627073		0.196488429				
1.79	--undefined--	62.169	0.025674465		1.79	--undefined--	50.569	0.006752651		0.208240865				
1.8	--undefined--	48.586	0.005374272		1.8	--undefined--	42.854	0.002777994		0.340763399				
1.81	--undefined--	41.322	0.002328789		1.81	--undefined--	39.866	0.001969467		0.458201351				
1.82	--undefined--	43.648	0.003043971		1.82	--undefined--	39.059	0.001794656		0.370901951				
1.83	--undefined--	52.035	0.007993846		1.83	--undefined--	42.713	0.00273319		0.254794519				
1.84	--undefined--	58.589	0.017000875		1.84	--undefined--	48.213	0.005148662		0.232450087				
1.85	--undefined--	60.996	0.022430289		1.85	--undefined--	50.757	0.006900436		0.235263064				
1.86	--undefined--	60.336	0.020787955		1.86	--undefined--	49.802	0.006182105		0.229221043				
1.87	--undefined--	61.546	0.023897109		1.87	--undefined--	49.382	0.005890151		0.197740606				
1.88	--undefined--	69.006	0.056407019		1.88	--undefined--	57.263	0.014594284		0.205549522				
1.89	--undefined--	75.976	0.125839537		1.89	--undefined--	64.219	0.032508389		0.205297219				
1.9	151.783	80.041	0.200953137		1.9	151.429	68.046	0.050506525		0.200853388				
1.91	153.155	81.65	0.241845899		1.91	153.221	69.476	0.059540109		0.197554324				
1.92	149.854	81.121	0.227546391		1.92	149.537	68.971	0.056182671		0.198015216				
1.93	145.153	78.528	0.168818591		1.93	144.301	66.692	0.043212773		0.203803683				
1.94	138.401	73.772	0.097640611		1.94	137.997	62.544	0.026806125		0.215402394				
1.95	--undefined--	66.964	0.044588492		1.95	--undefined--	56.48	0.01333664		0.230239266				
1.96	--undefined--	60.301	0.020704225		1.96	--undefined--	49.869	0.006230196		0.231309824				
1.97	--undefined--	55.293	0.011632743		1.97	--undefined--	44.602	0.003397103		0.226023823				
1.98	--undefined--	51.792	0.007773525		1.98	--undefined--	41.898	0.002488507		0.242496494				
1.99	--undefined--	50.374	0.00660309		1.99	--undefined--	41.128	0.002277292		0.256440747				
2	--undefined--	49.009	0.005642483		2	--undefined--	40.238	0.002055514		0.267019321				
2.01	--undefined--	46.983	0.004468553		2.01	--undefined--	39.235	0.001831452		0.290706403				
2.02	--undefined--	44.521	0.003365675		2.02	--undefined--	38.732	0.001728442		0.339301599				
2.03	--undefined--	42.855	0.002778235		2.03	--undefined--	38.461	0.001675296		0.376172519				
2.04	--undefined--	41.885	0.00248465		2.04	--undefined--	38.078	0.00160296		0.392150867				
2.05	--undefined--	41.698	0.00243193		2.05	--undefined--	37.409	0.001484243		0.379003396				
2.06	--undefined--	47.521	0.004754093		2.06	--undefined--	39.198	0.001823552		0.277234769				
2.07	--undefined--	53.061	0.008996868		2.07	--undefined--	42.96	0.002812163		0.238136676				
2.08	--undefined--	55.845	0.012395833		2.08	--undefined--	44.967	0.003543195		0.222296782				
2.09	--undefined--	59.18	0.018197357		2.09	--undefined--	47.859	0.004943081		0.213612252				
2.1	--undefined--	67.296	0.04632577		2.1	--undefined--	56.045	0.012685357		0.214965504				
2.11	--undefined--	73.612	0.095857662		2.11	--undefined--	62.318	0.026117147		0.214119185				
2.12	154.727	76.563	0.134636392		2.12	--undefined--	65.306	0.036842375		0.214850946				
2.13	143.776	77.355	0.147499366		2.13	142.923	66.56	0.042562996		0.223942267				
2.14	139.753	77.408	0.14840378		2.14	140.124	67.391	0.046833373		0.239879409				
2.15	138.176	77.13	0.143716246		2.15	138.54	67.609	0.048028109		0.250479912				
2.16	138.09	76.689	0.136613896		2.16	138.107	67.28	0.046243641		0.252894367				
2.17	138.717	76.337	0.131178368		2.17	138.645	66.935	0.044442722		0.253060279				
2.18	138.388	75.971	0.125767047		2.18	138.448	66.64	0.042957932		0.254603272				
2.19	138.602	75.609	0.120633278		2.19	138.547	66.376	0.041670976		0.256746048				
2.2	137.44	75.152	0.114451038		2.2	137.784	66.044	0.040106939		0.259494463				
2.21	136.325	74.733	0.109069163		2.21	136.563	65.616	0.038178314		0.259279921				
2.22	136.641	74.813	0.110076957		2.22	136.515	65.569	0.037974028		0.256492912				
2.23	136.558	75.062	0.113277446		2.23	136.507	65.899	0.039442126		0.258265037				
2.24	136.383	74.863	0.110707485		2.24	136.409	65.963	0.039734282		0.26411736				
2.25	138.161	74.466	0.105760496		2.25	137.892	65.725	0.038660829		0.267694742				
2.26	140.413	74.235	0.102987765		2.26	139.759	65.228	0.036513535		0.261743329				
2.27	143.332	74.359	0.104467783		2.27	142.639	64.601	0.033970406		0.2453832				
2.28	145.225	74.914	0.111362183		2.28	145.02	64.383	0.033126745		0.229268397				
2.29	149.495	75.656	0.121287995		2.29	149.397	64.55	0.033771853		0.217798826				
2.3	152.035	76.556	0.13452574		2.3	151.942	64.903	0.03517012		0.207253847				
2.31	155.989	77.689	0.153277402		2.31	156.103	65.59	0.038066065		0.198941024				
2.32	159.344	78.84	0.174996752		2.32	159.442	66.509	0.042315435		0.194721867				
2.33	162.609	79.913	0.19800147		2.33	162.609	67.521	0.047540992		0.193616173				
2.34	166.079	80.576	0.213717123		2.34	166.231	68.285	0.051916298		0.195443396				
2.35	166.515	79.842	0.196398313		2.35	166.279	67.761	0.048875344		0.199268622				
2.36	164.767	76.7	0.13677874		2.36	163.615	64.877	0.035064434		0.204049036				
2.37	--undefined--	70.305	0.065504088		2.37	--undefined--	59.076	0.017981044		0.215380199				
2.38	--undefined--	59.948	0.019879823		2.38	--undefined--	51.773	0.007756651		0.280667176				
2.39	--undefined--	47.783	0.004899989		2.39	--undefined--	46.897	0.00442463		0.47451055				
2.4	--undefined--	43.166	0.002879602		2.4	--undefined--	43.128	0.002866923		0.498896816				
2.41	--undefined--	41.022	0.002249711		2.41	--undefined--	39.66	0.001923281		0.460887731				
2.42	--undefined--	46.59	0.004270864		2.42	--undefined--	39.09	0.001801023		0.296616749				
2.43	--undefined--	60.121	0.020281503		2.43	--undefined--	47.785	0.004900804		0.194613005				
2.44	--undefined--	71.917	0.078860636		2.44	--undefined--	59.302	0.018456226		0.189650857				
2.45	--undefined--	78.99	0.178040809		2.45	--undefined--	66.429	0.041925473		0.190599543				
2.46	173.432	82.245	0.258992195		2.46	175.182	69.576	0.060231881		0.188682138				
